Time t / s,Voltage U_B1 / V
0,0
0.0005,-0.0015
0.001,0
0.0015,0
0.002,0
0.0025,-0.0015
0.003,-0.0015
0.0035,-0.0015
0.004,-0.0015
0.0045,-0.0015
0.005,-0.0015
0.0055,-0.0015
0.006,-0.0015
0.0065,-0.0015
0.007,-0.0015
0.0075,-0.003
0.008,-0.003
0.0085,-0.0015
0.009,-0.0015
0.0095,-0.0015
0.01,-0.003
0.0105,-0.003
0.011,-0.003
0.0115,-0.0045
0.012,-0.003
0.0125,-0.0045
0.013,-0.0045
0.0135,-0.0045
0.014,-0.003
0.0145,-0.0045
0.015,-0.0045
0.0155,-0.0045
0.016,-0.0045
0.0165,-0.0045
0.017,-0.0045
0.0175,-0.006
0.018,-0.0045
0.0185,-0.006
0.019,-0.006
0.0195,-0.006
0.02,-0.006
0.0205,-0.006
0.021,-0.006
0.0215,-0.0045
0.022,-0.006
0.0225,-0.006
0.023,-0.006
0.0235,-0.006
0.024,-0.006
0.0245,-0.006
0.025,-0.006
0.0255,-0.006
0.026,-0.0075
0.0265,-0.0075
0.027,-0.006
0.0275,-0.0075
0.028,-0.006
0.0285,-0.006
0.029,-0.006
0.0295,-0.0075
0.03,-0.006
0.0305,-0.006
0.031,-0.006
0.0315,-0.006
0.032,-0.006
0.0325,-0.006
0.033,-0.006
0.0335,-0.0045
0.034,-0.006
0.0345,-0.006
0.035,-0.006
0.0355,-0.0045
0.036,-0.006
0.0365,-0.0045
0.037,-0.006
0.0375,-0.006
0.038,-0.0045
0.0385,-0.006
0.039,-0.006
0.0395,-0.006
0.04,-0.0045
0.0405,-0.0045
0.041,-0.006
0.0415,-0.006
0.042,-0.006
0.0425,-0.0045
0.043,-0.0045
0.0435,-0.0045
0.044,-0.0045
0.0445,-0.0045
0.045,-0.0045
0.0455,-0.0045
0.046,-0.0045
0.0465,-0.0045
0.047,-0.0045
0.0475,-0.0045
0.048,-0.0045
0.0485,-0.0045
0.049,-0.0045
0.0495,-0.0045
0.05,-0.0045
0.0505,-0.003
0.051,-0.003
0.0515,-0.003
0.052,-0.003
0.0525,-0.003
0.053,-0.0045
0.0535,-0.0045
0.054,-0.003
0.0545,-0.0015
0.055,-0.0015
0.0555,-0.003
0.056,-0.0015
0.0565,-0.0015
0.057,-0.0015
0.0575,-0.0015
0.058,-0.0015
0.0585,-0.0015
0.059,-0.003
0.0595,-0.0015
0.06,0
0.0605,0
0.061,-0.0015
0.0615,-0.0015
0.062,0
0.0625,-0.0015
0.063,0
0.0635,0
0.064,0
0.0645,0
0.065,0
0.0655,0
0.066,0
0.0665,0
0.067,0
0.0675,0
0.068,0
0.0685,0
0.069,0
0.0695,0
0.07,0
0.0705,0.0015
0.071,0
0.0715,0
0.072,0
0.0725,0.0015
0.073,0.0015
0.0735,0.0015
0.074,0.0015
0.0745,0
0.075,0.0015
0.0755,0.0015
0.076,0.0015
0.0765,0.0015
0.077,0.0015
0.0775,0.0015
0.078,0.0015
0.0785,0
0.079,0.0015
0.0795,0.0015
0.08,0.0015
0.0805,0.0015
0.081,0.0015
0.0815,0
0.082,0
0.0825,0
0.083,0
0.0835,0
0.084,0
0.0845,0.0015
0.085,0.0015
0.0855,0.0015
0.086,0.0015
0.0865,0
0.087,0
0.0875,0
0.088,0
0.0885,0
0.089,0
0.0895,0
0.09,0
0.0905,0
0.091,0
0.0915,0
0.092,0
0.0925,0
0.093,0
0.0935,0
0.094,0
0.0945,-0.0015
0.095,0
0.0955,0
0.096,-0.0015
0.0965,0
0.097,0
0.0975,0
0.098,-0.0015
0.0985,0
0.099,0
0.0995,0
0.1,-0.0015
0.1005,0
0.101,-0.0015
0.1015,-0.0015
0.102,-0.0015
0.1025,-0.0015
0.103,-0.0015
0.1035,-0.0015
0.104,-0.0015
0.1045,-0.0015
0.105,-0.0015
0.1055,-0.0015
0.106,-0.0015
0.1065,-0.0015
0.107,-0.0015
0.1075,-0.0015
0.108,-0.0015
0.1085,-0.003
0.109,-0.003
0.1095,-0.0015
0.11,-0.0015
0.1105,-0.003
0.111,-0.0015
0.1115,-0.0015
0.112,-0.0015
0.1125,-0.0015
0.113,-0.0015
0.1135,-0.0015
0.114,-0.0015
0.1145,-0.0015
0.115,-0.003
0.1155,-0.0015
0.116,-0.0015
0.1165,-0.0015
0.117,-0.003
0.1175,-0.0015
0.118,-0.0015
0.1185,-0.003
0.119,-0.003
0.1195,-0.003
0.12,-0.003
0.1205,-0.0015
0.121,-0.003
0.1215,-0.003
0.122,-0.003
0.1225,-0.003
0.123,-0.003
0.1235,-0.003
0.124,-0.003
0.1245,-0.0015
0.125,-0.0015
0.1255,-0.003
0.126,-0.0015
0.1265,-0.003
0.127,-0.003
0.1275,-0.003
0.128,-0.003
0.1285,-0.003
0.129,-0.003
0.1295,-0.0045
0.13,-0.0015
0.1305,-0.003
0.131,-0.003
0.1315,-0.003
0.132,-0.0015
0.1325,-0.0015
0.133,-0.003
0.1335,-0.003
0.134,-0.003
0.1345,-0.003
0.135,-0.003
0.1355,-0.0015
0.136,-0.0015
0.1365,-0.0015
0.137,-0.0015
0.1375,-0.0015
0.138,-0.0015
0.1385,-0.003
0.139,-0.003
0.1395,-0.003
0.14,-0.0015
0.1405,-0.0015
0.141,-0.0015
0.1415,-0.0015
0.142,-0.0015
0.1425,-0.0015
0.143,-0.0015
0.1435,0
0.144,-0.0015
0.1445,-0.0015
0.145,-0.0015
0.1455,-0.0015
0.146,-0.0015
0.1465,0
0.147,0
0.1475,0
0.148,0
0.1485,0
0.149,0
0.1495,0
0.15,0
0.1505,0
0.151,0
0.1515,0
0.152,0
0.1525,0
0.153,0
0.1535,0
0.154,0
0.1545,0
0.155,0.0015
0.1555,0
0.156,0.0015
0.1565,0.0015
0.157,0.0015
0.1575,0.0015
0.158,0.0015
0.1585,0.0015
0.159,0
0.1595,0.0015
0.16,0
0.1605,0.0015
0.161,0.0015
0.1615,0.003
0.162,0.0015
0.1625,0.003
0.163,0.0015
0.1635,0.0015
0.164,0.0015
0.1645,0.0015
0.165,0.0015
0.1655,0.0015
0.166,0.0015
0.1665,0.0015
0.167,0.0015
0.1675,0.0015
0.168,0.0015
0.1685,0.0015
0.169,0.0015
0.1695,0.0015
0.17,0.0015
0.1705,0.0015
0.171,0.0015
0.1715,0.0015
0.172,0.0015
0.1725,0.003
0.173,0.0015
0.1735,0.0015
0.174,0.0015
0.1745,0.0015
0.175,0.0015
0.1755,0.0015
0.176,0.0015
0.1765,0.0015
0.177,0.0015
0.1775,0.0015
0.178,0.0015
0.1785,0.003
0.179,0.0015
0.1795,0.0015
0.18,0.0015
0.1805,0.0015
0.181,0.0015
0.1815,0.0015
0.182,0.0015
0.1825,0.0015
0.183,0.0015
0.1835,0.0015
0.184,0.0015
0.1845,0.0015
0.185,0.0015
0.1855,0.0015
0.186,0.0015
0.1865,0.0015
0.187,0.0015
0.1875,0
0.188,0.0015
0.1885,0.0015
0.189,0.0015
0.1895,0.0015
0.19,0.0015
0.1905,0.0015
0.191,0.003
0.1915,0.0015
0.192,0.0015
0.1925,0.0015
0.193,0.0015
0.1935,0.0015
0.194,0.0015
0.1945,0.0015
0.195,0
0.1955,0.0015
0.196,0.0015
0.1965,0
0.197,0.0015
0.1975,0.0015
0.198,0
0.1985,0.0015
0.199,0
0.1995,0
0.2,0
0.2005,0.0015
0.201,0.0015
0.2015,0
0.202,0.0015
0.2025,0
0.203,0.0015
0.2035,0.0015
0.204,0.0015
0.2045,0
0.205,0
0.2055,0
0.206,0.0015
0.2065,0
0.207,0
0.2075,0
0.208,0
0.2085,0
0.209,0
0.2095,0
0.21,0
0.2105,0
0.211,0
0.2115,0
0.212,0
0.2125,0
0.213,0
0.2135,-0.0015
0.214,0
0.2145,0
0.215,0
0.2155,0
0.216,0
0.2165,0
0.217,-0.0015
0.2175,-0.0015
0.218,-0.0015
0.2185,-0.0015
0.219,0
0.2195,0
0.22,0
0.2205,0
0.221,-0.0015
0.2215,0
0.222,-0.0015
0.2225,-0.0015
0.223,-0.0015
0.2235,-0.0015
0.224,-0.0015
0.2245,-0.0015
0.225,-0.0015
0.2255,-0.003
0.226,-0.0015
0.2265,-0.0015
0.227,-0.0015
0.2275,-0.0015
0.228,-0.0015
0.2285,-0.003
0.229,-0.0015
0.2295,-0.003
0.23,-0.003
0.2305,-0.0015
0.231,-0.0015
0.2315,-0.0015
0.232,-0.0015
0.2325,-0.0015
0.233,-0.003
0.2335,-0.0015
0.234,-0.0015
0.2345,-0.0015
0.235,-0.0015
0.2355,-0.0015
0.236,-0.003
0.2365,-0.0015
0.237,-0.0015
0.2375,-0.0015
0.238,-0.0015
0.2385,-0.0015
0.239,-0.0015
0.2395,0
0.24,-0.0015
0.2405,-0.0015
0.241,-0.0015
0.2415,0
0.242,-0.0015
0.2425,0
0.243,0
0.2435,0
0.244,0
0.2445,0
0.245,0
0.2455,0
0.246,0
0.2465,-0.0015
0.247,0
0.2475,0
0.248,-0.0015
0.2485,0
0.249,0
0.2495,0
0.25,0
0.2505,0
0.251,0
0.2515,0
0.252,0
0.2525,0
0.253,0
0.2535,-0.0015
0.254,-0.0015
0.2545,0
0.255,0
0.2555,0
0.256,0
0.2565,0
0.257,0
0.2575,0
0.258,0
0.2585,0
0.259,0
0.2595,0
0.26,0
0.2605,0
0.261,0
0.2615,0
0.262,0
0.2625,-0.0015
0.263,-0.0015
0.2635,0
0.264,0
0.2645,-0.0015
0.265,-0.0015
0.2655,0
0.266,0
0.2665,0
0.267,0
0.2675,0
0.268,0
0.2685,0
0.269,0
0.2695,0
0.27,0
0.2705,0
0.271,-0.0015
0.2715,0
0.272,0
0.2725,-0.0015
0.273,0
0.2735,0
0.274,0
0.2745,0
0.275,0
0.2755,-0.0015
0.276,0
0.2765,0
0.277,0
0.2775,0
0.278,0
0.2785,0
0.279,0
0.2795,0
0.28,0
0.2805,0
0.281,0
0.2815,0
0.282,0
0.2825,0
0.283,0
0.2835,0
0.284,0
0.2845,0
0.285,0
0.2855,0
0.286,0
0.2865,0
0.287,0
0.2875,0
0.288,0
0.2885,0
0.289,0
0.2895,0.0015
0.29,0
0.2905,0
0.291,0
0.2915,0.0015
0.292,0
0.2925,0
0.293,0
0.2935,0
0.294,0
0.2945,0.0015
0.295,0
0.2955,0
0.296,0
0.2965,0.0015
0.297,0
0.2975,0.0015
0.298,0.0015
0.2985,0
0.299,0
0.2995,0.0015
0.3,0.0015
0.3005,0.0015
0.301,0.0015
0.3015,0
0.302,0.0015
0.3025,0
0.303,0.0015
0.3035,0.0015
0.304,0
0.3045,0.0015
0.305,0.0015
0.3055,0
0.306,0
0.3065,0
0.307,0
0.3075,0
0.308,0
0.3085,0.0015
0.309,0
0.3095,0
0.31,0
0.3105,0.0015
0.311,0.0015
0.3115,0
0.312,0
0.3125,0.0015
0.313,0.0015
0.3135,0.0015
0.314,0.0015
0.3145,0.0015
0.315,0.0015
0.3155,0
0.316,0
0.3165,0
0.317,0
0.3175,0
0.318,0
0.3185,0.0015
0.319,0
0.3195,0
0.32,0
0.3205,0
0.321,0
0.3215,0.0015
0.322,0
0.3225,0.0015
0.323,0.0015
0.3235,0
0.324,0
0.3245,0
0.325,0.0015
0.3255,0.0015
0.326,0
0.3265,0.0015
0.327,0.0015
0.3275,0.0015
0.328,0.0015
0.3285,0
0.329,0.0015
0.3295,0.0015
0.33,0.0015
0.3305,0.0015
0.331,0.0015
0.3315,0.0015
0.332,0.0015
0.3325,0.0015
0.333,0.0015
0.3335,0.0015
0.334,0.0015
0.3345,0
0.335,0
0.3355,0.0015
0.336,0
0.3365,0
0.337,0.0015
0.3375,0.0015
0.338,0
0.3385,0.0015
0.339,0.0015
0.3395,0.0015
0.34,0.0015
0.3405,0.0015
0.341,0.0015
0.3415,0
0.342,0.0015
0.3425,0.0015
0.343,0.0015
0.3435,0.0015
0.344,0
0.3445,0
0.345,0.0015
0.3455,0.0015
0.346,0
0.3465,0.0015
0.347,0
0.3475,0.0015
0.348,0.0015
0.3485,0
0.349,0.0015
0.3495,0
0.35,0.0015
0.3505,0
0.351,0.0015
0.3515,0.0015
0.352,0.0015
0.3525,0
0.353,0.0015
0.3535,0.0015
0.354,0.0015
0.3545,0.0015
0.355,0
0.3555,0.0015
0.356,0
0.3565,0
0.357,0.0015
0.3575,0.0015
0.358,0
0.3585,0
0.359,0.0015
0.3595,0.0015
0.36,0
0.3605,0.0015
0.361,0
0.3615,0
0.362,0.0015
0.3625,0
0.363,0
0.3635,0
0.364,0
0.3645,0
0.365,0
0.3655,0
0.366,0
0.3665,0
0.367,0
0.3675,0
0.368,0
0.3685,0
0.369,0
0.3695,0
0.37,-0.0015
0.3705,0
0.371,0
0.3715,0
0.372,0
0.3725,0
0.373,0
0.3735,0
0.374,0
0.3745,-0.0015
0.375,0
0.3755,-0.0015
0.376,0
0.3765,0
0.377,0
0.3775,0
0.378,0
0.3785,0
0.379,0
0.3795,0
0.38,0
0.3805,0
0.381,0
0.3815,0
0.382,0
0.3825,0
0.383,0
0.3835,0
0.384,0
0.3845,0
0.385,-0.0015
0.3855,0.0015
0.386,0
0.3865,0
0.387,0
0.3875,0
0.388,0
0.3885,0
0.389,0
0.3895,0
0.39,0.0015
0.3905,0
0.391,0
0.3915,0.0015
0.392,0.0015
0.3925,0.0015
0.393,0
0.3935,0
0.394,0
0.3945,0
0.395,0.0015
0.3955,0
0.396,0.0015
0.3965,0.0015
0.397,0.0015
0.3975,0.0015
0.398,0.0015
0.3985,0.0015
0.399,0
0.3995,0
0.4,0.0015
0.4005,0
0.401,0
0.4015,0
0.402,0.0015
0.4025,0
0.403,0.0015
0.4035,0.0015
0.404,0.0015
0.4045,0.0015
0.405,0.0015
0.4055,0
0.406,0
0.4065,0
0.407,0
0.4075,0
0.408,0
0.4085,0
0.409,0
0.4095,0
0.41,0
0.4105,0.0015
0.411,0
0.4115,0
0.412,0
0.4125,0
0.413,0
0.4135,0.0015
0.414,0
0.4145,0
0.415,0
0.4155,0
0.416,0
0.4165,0
0.417,0.0015
0.4175,0.0015
0.418,0
0.4185,0
0.419,0
0.4195,0
0.42,0
0.4205,0
0.421,0.0015
0.4215,0
0.422,0
0.4225,0.0015
0.423,0
0.4235,0.0015
0.424,0
0.4245,0
0.425,0
0.4255,0
0.426,0
0.4265,0
0.427,0
0.4275,0
0.428,0
0.4285,0.0015
0.429,0.0015
0.4295,0.0015
0.43,0.0015
0.4305,0
0.431,0
0.4315,0
0.432,0
0.4325,0
0.433,0
0.4335,0.0015
0.434,0
0.4345,0.0015
0.435,0.0015
0.4355,0.0015
0.436,0.0015
0.4365,0.0015
0.437,0
0.4375,0.0015
0.438,0.0015
0.4385,0
0.439,0.0015
0.4395,0.0015
0.44,0.0015
0.4405,0.0015
0.441,0.0015
0.4415,0.0015
0.442,0.003
0.4425,0.0015
0.443,0.0015
0.4435,0.0015
0.444,0.0015
0.4445,0.003
0.445,0.0015
0.4455,0.003
0.446,0.0015
0.4465,0.0015
0.447,0.0015
0.4475,0.003
0.448,0.003
0.4485,0.0015
0.449,0.0015
0.4495,0.003
0.45,0.0015
0.4505,0.0015
0.451,0.003
0.4515,0.003
0.452,0.003
0.4525,0.003
0.453,0.003
0.4535,0.0015
0.454,0.0015
0.4545,0.003
0.455,0.003
0.4555,0.003
0.456,0.003
0.4565,0.003
0.457,0.003
0.4575,0.003
0.458,0.003
0.4585,0.0045
0.459,0.003
0.4595,0.003
0.46,0.003
0.4605,0.003
0.461,0.003
0.4615,0.003
0.462,0.0015
0.4625,0.003
0.463,0.003
0.4635,0.003
0.464,0.003
0.4645,0.003
0.465,0.003
0.4655,0.0015
0.466,0.003
0.4665,0.003
0.467,0.003
0.4675,0.003
0.468,0.003
0.4685,0.003
0.469,0.003
0.4695,0.003
0.47,0.003
0.4705,0.003
0.471,0.003
0.4715,0.0015
0.472,0.003
0.4725,0.003
0.473,0.0015
0.4735,0.0015
0.474,0.0015
0.4745,0.003
0.475,0.003
0.4755,0.003
0.476,0.0015
0.4765,0.0015
0.477,0.0015
0.4775,0.0015
0.478,0.003
0.4785,0.0015
0.479,0.0015
0.4795,0.0015
0.48,0.0015
0.4805,0.0015
0.481,0.0015
0.4815,0.0015
0.482,0.0015
0.4825,0.0015
0.483,0
0.4835,0.0015
0.484,0.0015
0.4845,0.0015
0.485,0.0015
0.4855,0.0015
0.486,0
0.4865,0
0.487,0
0.4875,0
0.488,-0.0015
0.4885,0
0.489,0.0015
0.4895,0
0.49,0
0.4905,0
0.491,0
0.4915,-0.0015
0.492,0
0.4925,0
0.493,0
0.4935,0
0.494,0
0.4945,0
0.495,-0.0015
0.4955,0
0.496,0
0.4965,0
0.497,0
0.4975,0
0.498,0
0.4985,0
0.499,0
0.4995,0
0.5,-0.0015
0.5005,0
0.501,-0.0015
0.5015,0
0.502,-0.0015
0.5025,0
0.503,0
0.5035,0
0.504,0
0.5045,0
0.505,0
0.5055,0
0.506,0
0.5065,0
0.507,0
0.5075,0
0.508,0
0.5085,0
0.509,0
0.5095,0
0.51,0
0.5105,0
0.511,0
0.5115,0
0.512,0.0015
0.5125,0.0015
0.513,0
0.5135,0.0015
0.514,0.0015
0.5145,0.0015
0.515,0.0015
0.5155,0.0015
0.516,0
0.5165,0.0015
0.517,0.0015
0.5175,0.0015
0.518,0.0015
0.5185,0.0015
0.519,0.0015
0.5195,0.0015
0.52,0.0015
0.5205,0.0015
0.521,0.003
0.5215,0.0015
0.522,0.0015
0.5225,0.0015
0.523,0.0015
0.5235,0.003
0.524,0.0015
0.5245,0.0015
0.525,0.003
0.5255,0.0015
0.526,0.0015
0.5265,0.0015
0.527,0.0015
0.5275,0.0015
0.528,0.0015
0.5285,0.003
0.529,0.0015
0.5295,0.0015
0.53,0.0015
0.5305,0.003
0.531,0.003
0.5315,0.0015
0.532,0.0015
0.5325,0.003
0.533,0.003
0.5335,0.003
0.534,0.003
0.5345,0.003
0.535,0.0015
0.5355,0.003
0.536,0.0015
0.5365,0.003
0.537,0.0015
0.5375,0.003
0.538,0.0015
0.5385,0.003
0.539,0.003
0.5395,0.0015
0.54,0.003
0.5405,0.003
0.541,0.003
0.5415,0.0015
0.542,0.003
0.5425,0.003
0.543,0.003
0.5435,0.0015
0.544,0.003
0.5445,0.003
0.545,0.0015
0.5455,0.003
0.546,0.003
0.5465,0.0015
0.547,0.003
0.5475,0.003
0.548,0.003
0.5485,0.0015
0.549,0.003
0.5495,0.003
0.55,0.003
0.5505,0.0015
0.551,0.003
0.5515,0.003
0.552,0.003
0.5525,0.003
0.553,0.003
0.5535,0.003
0.554,0.003
0.5545,0.0015
0.555,0.003
0.5555,0.003
0.556,0.003
0.5565,0.003
0.557,0.0015
0.5575,0.003
0.558,0.003
0.5585,0.0015
0.559,0.003
0.5595,0.003
0.56,0.003
0.5605,0.003
0.561,0.003
0.5615,0.003
0.562,0.003
0.5625,0.003
0.563,0.003
0.5635,0.003
0.564,0.0015
0.5645,0.003
0.565,0.003
0.5655,0.003
0.566,0.003
0.5665,0.003
0.567,0.003
0.5675,0.003
0.568,0.003
0.5685,0.003
0.569,0.003
0.5695,0.0015
0.57,0.003
0.5705,0.003
0.571,0.0015
0.5715,0.003
0.572,0.003
0.5725,0.003
0.573,0.003
0.5735,0.0015
0.574,0.003
0.5745,0.0015
0.575,0.0015
0.5755,0.003
0.576,0.003
0.5765,0.003
0.577,0.003
0.5775,0.003
0.578,0.003
0.5785,0.003
0.579,0.003
0.5795,0.0015
0.58,0.003
0.5805,0.003
0.581,0.0015
0.5815,0.003
0.582,0.0015
0.5825,0.0015
0.583,0.0015
0.5835,0.003
0.584,0.0015
0.5845,0.003
0.585,0.003
0.5855,0.003
0.586,0.003
0.5865,0.003
0.587,0.003
0.5875,0.0015
0.588,0.0015
0.5885,0.003
0.589,0.0015
0.5895,0.0015
0.59,0.0015
0.5905,0.0015
0.591,0.0015
0.5915,0.0015
0.592,0.003
0.5925,0.003
0.593,0.0015
0.5935,0.0015
0.594,0.0015
0.5945,0.0015
0.595,0.0015
0.5955,0.0015
0.596,0.0015
0.5965,0.0015
0.597,0.0015
0.5975,0.0015
0.598,0.0015
0.5985,0.0015
0.599,0.0015
0.5995,0.0015
0.6,0.0015
0.6005,0.0015
0.601,0.0015
0.6015,0.0015
0.602,0.0015
0.6025,0.0015
0.603,0.0015
0.6035,0.0015
0.604,0.0015
0.6045,0.0015
0.605,0.0015
0.6055,0.0015
0.606,0.0015
0.6065,0.0015
0.607,0.0015
0.6075,0.0015
0.608,0.0015
0.6085,0.0015
0.609,0.0015
0.6095,0.0015
0.61,0.0015
0.6105,0.0015
0.611,0.0015
0.6115,0.0015
0.612,0.0015
0.6125,0.0015
0.613,0.0015
0.6135,0.0015
0.614,0.0015
0.6145,0.0015
0.615,0.0015
0.6155,0.0015
0.616,0.0015
0.6165,0.0015
0.617,0.0015
0.6175,0.003
0.618,0.0015
0.6185,0.0015
0.619,0.003
0.6195,0.003
0.62,0.0015
0.6205,0.0015
0.621,0.003
0.6215,0.0015
0.622,0.0015
0.6225,0.0015
0.623,0
0.6235,0.0015
0.624,0.0015
0.6245,0.0015
0.625,0.003
0.6255,0.0015
0.626,0.0015
0.6265,0.0015
0.627,0.0015
0.6275,0.0015
0.628,0.0015
0.6285,0.0015
0.629,0.0015
0.6295,0.0015
0.63,0.003
0.6305,0.003
0.631,0.003
0.6315,0.0015
0.632,0.0015
0.6325,0.0015
0.633,0.0015
0.6335,0.003
0.634,0.0015
0.6345,0.0015
0.635,0.0015
0.6355,0.0015
0.636,0.0015
0.6365,0.003
0.637,0.003
0.6375,0.003
0.638,0.003
0.6385,0.003
0.639,0.003
0.6395,0.0015
0.64,0.0015
0.6405,0.0015
0.641,0.0015
0.6415,0.003
0.642,0.003
0.6425,0.0015
0.643,0.003
0.6435,0.003
0.644,0.0015
0.6445,0.003
0.645,0.003
0.6455,0.003
0.646,0.0015
0.6465,0.0015
0.647,0.0015
0.6475,0.003
0.648,0.003
0.6485,0.003
0.649,0.003
0.6495,0.0015
0.65,0.003
0.6505,0.003
0.651,0.003
0.6515,0.003
0.652,0.0015
0.6525,0.0015
0.653,0.003
0.6535,0.003
0.654,0.003
0.6545,0.003
0.655,0.003
0.6555,0.003
0.656,0.003
0.6565,0.003
0.657,0.003
0.6575,0.003
0.658,0.0015
0.6585,0.0015
0.659,0.003
0.6595,0.003
0.66,0.003
0.6605,0.003
0.661,0.0015
0.6615,0.003
0.662,0.003
0.6625,0.003
0.663,0.003
0.6635,0.003
0.664,0.003
0.6645,0.003
0.665,0.003
0.6655,0.003
0.666,0.003
0.6665,0.003
0.667,0.003
0.6675,0.003
0.668,0.003
0.6685,0.0015
0.669,0.003
0.6695,0.003
0.67,0.003
0.6705,0.003
0.671,0.003
0.6715,0.003
0.672,0.0015
0.6725,0.0015
0.673,0.003
0.6735,0.003
0.674,0.003
0.6745,0.003
0.675,0.0015
0.6755,0.003
0.676,0.0015
0.6765,0.003
0.677,0.0015
0.6775,0.003
0.678,0.003
0.6785,0.003
0.679,0.003
0.6795,0.0015
0.68,0.003
0.6805,0.0015
0.681,0.0015
0.6815,0.0015
0.682,0.003
0.6825,0.003
0.683,0.0015
0.6835,0.003
0.684,0.003
0.6845,0.0015
0.685,0.0015
0.6855,0.003
0.686,0.0015
0.6865,0.003
0.687,0.0015
0.6875,0.003
0.688,0.0015
0.6885,0.0015
0.689,0.0015
0.6895,0.0015
0.69,0.0015
0.6905,0.0015
0.691,0.0015
0.6915,0.0015
0.692,0.0015
0.6925,0.0015
0.693,0.0015
0.6935,0.0015
0.694,0.0015
0.6945,0.0015
0.695,0.0015
0.6955,0.0015
0.696,0.0015
0.6965,0.0015
0.697,0.0015
0.6975,0.0015
0.698,0.0015
0.6985,0
0.699,0.0015
0.6995,0.0015
0.7,0.0015
0.7005,0.0015
0.701,0.0015
0.7015,0.0015
0.702,0.0015
0.7025,0.0015
0.703,0.0015
0.7035,0.0015
0.704,0.0015
0.7045,0.0015
0.705,0.0015
0.7055,0.0015
0.706,0.0015
0.7065,0.0015
0.707,0.0015
0.7075,0.0015
0.708,0.0015
0.7085,0.0015
0.709,0
0.7095,0.0015
0.71,0.0015
0.7105,0.0015
0.711,0.0015
0.7115,0.0015
0.712,0.0015
0.7125,0
0.713,0.0015
0.7135,0.0015
0.714,0.0015
0.7145,0.0015
0.715,0.0015
0.7155,0.0015
0.716,0.0015
0.7165,0.0015
0.717,0.0015
0.7175,0.003
0.718,0.0015
0.7185,0.0015
0.719,0.0015
0.7195,0.0015
0.72,0.0015
0.7205,0.0015
0.721,0.0015
0.7215,0.0015
0.722,0.0015
0.7225,0.0015
0.723,0.0015
0.7235,0.0015
0.724,0.0015
0.7245,0.0015
0.725,0.0015
0.7255,0.0015
0.726,0.0015
0.7265,0.0015
0.727,0.0015
0.7275,0.0015
0.728,0.0015
0.7285,0.0015
0.729,0.0015
0.7295,0.0015
0.73,0.0015
0.7305,0.0015
0.731,0.0015
0.7315,0.0015
0.732,0.0015
0.7325,0.0015
0.733,0.0015
0.7335,0.0015
0.734,0.0015
0.7345,0.0015
0.735,0.003
0.7355,0.0015
0.736,0.0015
0.7365,0.0015
0.737,0.0015
0.7375,0.0015
0.738,0.0015
0.7385,0.003
0.739,0.0015
0.7395,0.0015
0.74,0.0015
0.7405,0.003
0.741,0.0015
0.7415,0.003
0.742,0.0015
0.7425,0.003
0.743,0.003
0.7435,0.0015
0.744,0.003
0.7445,0.003
0.745,0.0015
0.7455,0.003
0.746,0.0015
0.7465,0.003
0.747,0.003
0.7475,0.003
0.748,0.003
0.7485,0.003
0.749,0.003
0.7495,0.0015
0.75,0.003
0.7505,0.003
0.751,0.0015
0.7515,0.003
0.752,0.003
0.7525,0.0015
0.753,0.003
0.7535,0.003
0.754,0.003
0.7545,0.003
0.755,0.003
0.7555,0.003
0.756,0.003
0.7565,0.003
0.757,0.003
0.7575,0.003
0.758,0.003
0.7585,0.003
0.759,0.003
0.7595,0.003
0.76,0.003
0.7605,0.003
0.761,0.003
0.7615,0.003
0.762,0.0015
0.7625,0.003
0.763,0.003
0.7635,0.003
0.764,0.003
0.7645,0.003
0.765,0.003
0.7655,0.003
0.766,0.003
0.7665,0.003
0.767,0.0015
0.7675,0.003
0.768,0.003
0.7685,0.003
